spectral_axis,intensity
3932.25,6430.111
3933.89,4185.816
3935.52,3769.045
3937.16,3546.25
3938.79,3846.842
3940.42,3418.109
3942.06,3537.279
3943.69,4091.229
3945.32,3565.195
3946.96,4267.256
3948.59,3548.092
3950.23,3818.258
3951.86,3829.715
3953.49,4090.313
3955.13,3439.99
3956.76,3904.375
3958.39,3966.28
3960.03,3905.415
3961.66,4026.034
3963.3,3159.142
3964.93,3452.567
3966.56,3604.366
3968.2,3732.496
3969.83,3592.286
3971.47,3714.958
3973.1,3856.148
3974.73,3376.129
3976.37,3511.688
3978,3572.003
3979.64,3884.132
3981.27,3663.087
3982.9,3913.835
3984.54,3781.347
3986.17,3626.693
3987.8,3613.564
3989.44,3324.584
3991.07,2774.986
3992.71,2969.911
3994.34,2536.471
3995.97,2469.151
3997.61,2451.09
3999.24,2732.847
4000.88,3038.558
4002.51,3142.488
4004.14,3087.183
4005.78,3314.117
4007.41,3740.826
4009.04,3643.563
4010.68,3746.66
4012.31,3056.783
4013.95,3406.399
4015.58,4095.598
4017.21,3926.102
4018.85,4044.321
4020.48,4097.653
4022.11,4217.382
4023.75,4206.457
4025.38,4131.993
4027.02,4025.241
4028.65,3527.718
4030.28,3541.326
4031.92,3046.387
4033.55,3212.61
4035.19,3441.683
4036.82,3627.172
4038.45,3539.776
4040.09,3989.317
4041.72,3732.372
4043.36,3994.818
4044.99,3992.563
4046.62,4024.045
4048.26,4563.801
4049.89,4225.414
4051.52,4203.276
4053.16,3988.674
4054.79,4195.444
4056.43,4123.516
4058.06,4171.149
4059.69,4536.632
4061.33,4332.153
4062.96,3794.305
4064.59,3724.054
4066.23,3928.682
4067.86,4393.688
4069.5,4473.556
4071.13,4395.551
4072.76,4238.181
4074.4,4377.614
4076.03,4552.944
4077.67,3931.6
4079.3,4115.675
4080.93,4609.125
4082.57,4294.512
4084.2,4200.271
4085.84,4566.928
4087.47,4582.899
4089.1,4550.417
4090.74,4289.172
4092.37,4139.58
4094.01,3947.597
4095.64,4102.084
4097.27,4771.065
4098.91,4313.565
4100.54,3894.399
4102.17,4479.466
4103.81,4546.342
4105.44,4247.081
4107.07,4480.709
4108.71,3847.026
4110.34,3799.221
4111.98,3793.072
4113.61,4271.882
4115.24,4359.237
4116.88,4530.522
4118.51,4192.621
4120.15,4264.924
4121.78,4572.375
4123.41,4804.271
4125.05,4309.907
4126.68,4523.415
4128.31,4491.599
4129.95,4175.664
4131.58,4281.832
4133.22,4636.622
4134.85,4152.698
4136.48,4221.905
4138.12,4540.621
4139.75,4365.414
4141.39,4513.109
4143.02,4591.175
4144.65,4515.203
4146.29,4783.283
4147.92,4961.263
4149.56,4453.352
4151.19,4814.194
4152.82,4966.227
4154.46,4871.399
4156.09,4552.874
4157.73,4185.003
4159.36,4570.533
4160.99,4540.188
4162.63,4921.222
4164.26,4476.59
4165.89,4791.936
4167.53,5122.873
4169.16,4997.721
4170.8,5054.918
4172.43,4464.355
4174.06,4732.186
4175.7,4880.096
4177.33,4917.119
4178.97,4814.709
4180.6,4990.565
4182.23,4707.691
4183.87,4676.707
4185.5,4744.753
4187.13,4413.29
4188.77,4533.081
4190.4,4935.775
4192.04,4861.26
4193.67,4887.907
4195.3,4762.053
4196.94,4782.853
4198.57,4852.501
4200.2,4833.385
4201.84,4896.613
4203.47,4937.085
4205.11,4694.685
4206.74,4814.54
4208.37,4839.186
4210.01,4514.244
4211.64,4471.427
4213.27,4377.551
4214.91,4702.687
4216.54,4509.056
4218.18,4624.489
4219.81,4907.095
4221.44,4683.433
4223.08,4563.411
4224.71,4635.29
4226.35,4444.464
4227.98,4812.833
4229.61,4855.87
4231.25,4803.863
4232.88,4508.191
4234.52,4500.704
4236.15,4391.635
4237.78,4202.228
4239.42,4510.233
4241.05,4485.193
4242.69,4181.588
4244.32,4184.978
4245.95,4184.098
4247.59,4325.205
4249.22,4522.54
4250.85,4690.249
4252.49,4588.187
4254.12,4317.202
4255.76,5121.172
4257.39,4536.537
4259.02,4567.039
4260.66,4578.501
4262.29,4451.244
4263.93,4304.212
4265.56,4115.684
4267.19,4563.441
4268.83,4729.612
4270.46,4341.269
4272.09,4370.002
4273.73,4739.976
4275.36,4921.053
4277,5025
4278.63,4638.742
4280.26,4753.301
4281.9,4739.179
4283.53,4925.705
4285.16,4893.513
4286.8,4832.93
4288.43,4458.06
4290.07,4383.417
4291.7,4674.056
4293.33,4480.876
4294.97,4100.628
4296.6,4178.99
4298.24,4313.952
4299.87,4676.286
4301.5,4829.348
4303.14,4637.173
4304.77,4426.156
4306.4,4430.573
4308.04,4890.063
4309.67,4928.958
4311.31,4596.839
4312.94,4883.636
4314.57,4996.458
4316.21,4592.19
4317.84,4956.048
4319.48,4689.153
4321.11,4452.311
4322.74,4689.48
4324.38,4877.935
4326.01,4863.582
4327.65,4711.406
4329.28,4879.969
4330.91,4771.419
4332.55,5055.967
4334.18,5297.475
4335.81,4757.715
4337.45,4925.274
4339.08,4838.195
4340.72,4788.591
4342.35,4656.47
4343.98,4869.443
4345.62,4731.215
4347.25,5006.23
4348.89,5022.554
4350.52,4736.726
4352.15,4933.345
4353.79,4941.629
4355.42,5012.082
4357.05,4884.347
4358.69,4817.667
4360.32,5045.255
4361.96,5116.433
4363.59,4695.415
4365.22,4774.152
4366.86,4761.875
4368.49,4550.942
4370.12,4435.871
4371.76,4480.786
4373.39,4580.387
4375.03,4425.787
4376.66,4502.429
4378.29,4661.464
4379.93,4992.787
4381.56,5055.291
4383.2,5680.54
4384.83,5760.261
4386.46,5740.101
4388.1,5923.067
4389.73,6054.036
4391.36,5815.403
4393,5771.875
4394.63,5594.578
4396.27,6048.523
4397.9,6112.818
4399.53,5935.634
4401.17,6004.051
4402.8,6371.914
4404.44,6952.82
4406.07,6816.444
4407.7,6969.698
4409.34,6250.57
4410.97,6259.957
4412.6,6561.329
4414.24,6600.669
4415.87,6660.83
4417.51,6435.492
4419.14,6266.32
4420.77,6171.94
4422.41,5964.799
4424.04,6139.612
4425.68,6496.919
4427.31,6741.817
4428.94,6327.997
4430.58,6709.286
4432.21,7333.285
4433.85,7115.149
4435.48,6749.234
4437.11,6551.143
4438.75,6501.482
4440.38,6670.849
4442.02,6431.24
4443.65,6382.455
4445.28,6451.995
4446.92,6326.966
4448.55,6478.57
4450.18,6045.827
4451.82,5759.191
4453.45,5618.427
4455.09,5766.391
4456.72,5800.177
4458.35,5813.825
4459.99,5907.712
4461.62,6073.13
4463.25,5984.547
4464.89,6001.043
4466.52,5733.912
4468.16,5711.545
4469.79,5836.183
4471.42,5717.238
4473.06,5817.023
4474.69,5641.075
4476.32,5653.34
4477.96,5780.977
4479.59,5693.135
4481.23,6077.009
4482.86,6137.896
4484.49,5990.885
4486.13,5863.985
4487.76,5785.669
4489.4,5834.942
4491.03,5777.896
4492.66,5904.56
4494.3,5618.566
4495.93,5825.145
4497.56,5938.247
4499.2,5723.34
4500.83,5820.611
4502.47,6016.282
4504.1,5496.892
4505.73,5872.747
4507.37,5971.614
4509,5822.51
4510.64,5907.629
4512.27,5693.743
4513.9,5671.353
4515.54,6012.616
4517.17,5988.076
4518.81,6232.308
4520.44,6009.143
4522.07,5969.771
4523.71,5970.893
4525.34,6083.031
4526.98,5689.849
4528.61,5655.643
4530.24,5863.208
4531.88,5836.319
4533.51,5955.098
4535.14,5899.173
4536.78,5726.895
4538.41,5829.61
4540.05,6161.442
4541.68,6259.524
4543.31,6393.437
4544.95,6135.803
4546.58,6449.703
4548.22,6370.279
4549.85,6384.688
4551.48,6267.106
4553.12,6137.765
4554.75,6310.397
4556.38,6164.222
4558.02,6157.89
4559.65,6383.048
4561.29,6416.338
4562.92,6237.522
4564.55,6118.756
4566.19,6152.589
4567.82,6539.521
4569.45,6595.463
4571.09,6326.148
4572.72,6196.43
4574.36,6467.519
4575.99,6636.191
4577.62,6574.321
4579.26,6383.261
4580.89,6334.418
4582.52,6670.713
4584.16,6621.645
4585.79,6533.154
4587.43,6357.903
4589.06,6528.635
4590.69,6955.171
4592.33,6748.197
4593.96,6413.529
4595.6,6375.97
4597.23,6215.807
4598.86,6129.328
4600.5,6365.786
4602.13,6414.275
4603.77,6424.932
4605.4,6117.348
4607.03,6428.518
4608.67,6564.467
4610.3,6303.194
4611.94,6289.081
4613.57,6405.112
4615.2,6474.796
4616.84,6677.638
4618.47,6347.053
4620.1,6248.774
4621.74,6545.734
4623.37,6625.712
4625.01,6671.277
4626.64,6715.617
4628.27,6903.862
4629.91,6767.34
4631.54,6854.255
4633.18,6892.395
4634.81,6502.272
4636.44,6743.68
4638.08,6539.416
4639.71,6595.314
4641.34,7087.202
4642.98,7034.812
4644.61,6589.084
4646.25,6755.474
4647.88,6842.381
4649.51,6627.209
4651.15,6733.66
4652.78,6642.333
4654.41,6502.906
4656.05,6503.841
4657.68,6687.9
4659.32,6742.426
4660.95,6788.847
4662.58,6883.752
4664.22,6864.178
4665.85,6828.018
4667.49,6811.677
4669.12,6302.599
4670.75,6281.913
4672.39,6635.629
4674.02,6750.669
4675.65,6693.379
4677.29,6618.96
4678.92,6800.902
4680.56,6764.852
4682.19,6954.324
4683.82,7291.949
4685.46,7102.183
4687.09,6835.41
4688.73,6898.001
4690.36,7159.352
4691.99,7277.825
4693.63,6788.448
4695.26,6771.765
4696.9,6973.408
4698.53,7054.054
4700.16,7029.459
4701.8,6769.057
4703.43,7114.279
4705.06,7039.295
4706.7,6852.808
4708.33,6987.728
4709.97,7014.513
4711.6,7030.985
4713.23,6814.652
4714.87,6591.246
4716.5,6705.631
4718.14,6725.893
4719.77,6863.459
4721.4,6692.68
4723.04,6686.531
4724.67,6491.976
4726.3,6634.657
4727.94,6736.591
4729.57,6925.297
4731.21,7254.669
4732.84,7067.77
4734.47,7277.051
4736.11,6939.578
4737.74,6586.41
4739.38,6879.874
4741.01,6703.308
4742.64,6546.157
4744.28,6410.202
4745.91,6857.224
4747.54,6730.852
4749.18,6521.656
4750.81,7014.792
4752.45,7036.134
4754.08,7008.776
4755.71,7126.842
4757.35,7212.169
4758.98,7180.162
4760.61,7304.228
4762.25,7250.979
4763.88,7109.771
4765.52,7106.767
4767.15,7056.416
4768.78,7042.151
4770.42,6859.511
4772.05,7063.748
4773.69,6856.035
4775.32,6582.885
4776.95,6743.349
4778.59,6565.157
4780.22,6606.173
4781.85,6714.895
4783.49,6788.759
4785.12,6559.323
4786.76,6690.565
4788.39,6717.524
4790.02,6811.744
4791.66,7070.121
4793.29,6972.606
4794.93,6886.755
4796.56,6952.638
4798.19,7076.307
4799.83,7191.147
4801.46,7028.284
4803.1,6800.266
4804.73,6940.826
4806.36,6804.668
4808,6882.264
4809.63,6912.9
4811.26,6902.659
4812.9,6906.965
4814.53,7113.966
4816.17,6856.079
4817.8,7056.912
4819.43,7422.483
4821.07,6924.374
4822.7,6906.979
4824.34,6681.046
4825.97,7025.346
4827.6,7123.534
4829.24,6754.545
4830.87,6852.701
4832.5,7206.912
4834.14,7148.083
4835.77,6874.641
4837.41,6825.022
4839.04,7150.091
4840.67,6962.576
4842.31,6743.853
4843.94,7134.462
4845.57,7065.335
4847.21,6736.285
4848.84,7145.181
4850.48,7020.087
4852.11,7184.101
4853.74,7200.818
4855.38,7348.313
4857.01,7195.74
4858.65,6901.438
4860.28,6979.159
4861.91,7193.461
4863.55,7117.427
4865.18,6771.292
4866.81,7066.448
4868.45,7138.522
4870.08,7608.635
4871.72,7730.687
4873.35,7572.215
4874.98,7361.867
4876.62,7501.931
4878.25,7826.316
4879.89,7479.52
4881.52,7491.558
4883.15,7717.716
4884.79,7863.081
4886.42,7691.386
4888.06,7587.372
4889.69,7817.524
4891.32,7805.97
4892.96,7749.181
4894.59,8141.303
4896.23,7986.309
4897.86,8069.741
4899.49,8483.139
4901.13,8008.878
4902.76,8537.414
4904.39,8547.884
4906.03,8558.899
4907.66,8678.012
4909.3,8786.581
4910.93,8886.263
4912.56,8897.625
4914.2,8871.089
4915.83,9334.548
4917.46,9570.854
4919.1,9170.573
4920.73,9469.244
4922.37,9232.604
4924,9345.884
4925.63,9709.568
4927.27,9816.842
4928.9,10128.88
4930.53,10089.34
4932.17,10346.88
4933.8,10928.53
4935.44,10803.82
4937.07,11224.25
4938.7,10861.45
4940.34,10828.77
4941.97,10492.14
4943.61,10961.45
4945.24,10868.02
4946.87,10535.33
4948.51,10468.23
4950.14,9946.404
4951.77,9897.425
4953.41,10317.3
4955.04,10326.3
4956.68,9815.904
4958.31,9648.882
4959.94,9344.319
4961.58,9591.521
4963.21,9570.359
4964.85,9671.18
4966.48,9531.35
4968.11,9235.634
4969.75,9677.058
4971.38,9846.784
4973.02,9934.73
4974.65,10197.02
4976.28,10099.58
4977.92,10043.1
4979.55,9929.753
4981.19,9565.638
4982.82,10054.86
4984.45,9401.479
4986.09,9301.74
4987.72,9228.06
4989.35,9270.405
4990.99,9179.343
4992.62,8530.583
4994.26,8828.994
4995.89,8319.39
4997.52,8107.27
4999.16,7898.056
5000.79,8007.431
5002.43,7889.287
5004.06,7799.311
5005.69,8522.4
5007.33,8326.996
5008.96,8085.562
5010.59,8292.702
5012.23,8124.61
5013.86,7982.854
5015.5,7886.804
5017.13,7890.543
5018.76,8031.497
5020.4,7715.799
5022.03,8014.419
5023.66,8363.878
5025.3,8679.418
5026.93,8688.551
5028.57,9041.241
5030.2,9433.013
5031.83,10378.42
5033.47,11339.83
5035.1,12170.81
5036.73,12428.98
5038.37,12215.67
5040,11560.13
5041.64,10980.95
5043.27,10074.37
5044.9,9641.359
5046.54,9089.328
5048.17,8587.753
5049.81,8207.079
5051.44,8054.349
5053.07,7762.171
5054.71,7529.046
5056.34,7728.038
5057.98,7578.515
5059.61,7285.257
5061.24,7235.914
5062.88,7376.007
5064.51,7559.228
5066.15,7557.634
5067.78,7656.962
5069.41,7997.115
5071.05,7989.655
5072.68,8403.88
5074.31,8771.476
5075.95,9432.399
5077.58,10700.09
5079.22,12724.1
5080.85,15347.03
5082.48,18496.46
5084.12,20203.93
5085.75,21357.69
5087.39,21640.09
5089.02,20091.98
5090.65,17237.3
5092.29,14388.83
5093.92,12382.9
5095.55,10802.11
5097.19,9455.073
5098.82,8816.264
5100.46,8322.065
5102.09,7899.606
5103.72,7668.062
5105.36,7573.332
5106.99,7627.831
5108.62,7660.633
5110.26,7619.814
5111.89,7556.853
5113.53,7283.373
5115.16,6996.175
5116.79,7247.289
5118.43,7126.39
5120.06,7099.884
5121.7,6944.213
5123.33,6890.164
5124.96,7055.183
5126.6,7221.046
5128.23,7227.093
5129.86,7100.337
5131.5,7013.006
5133.13,7125.331
5134.77,7309.477
5136.4,7023.195
5138.03,7134.742
5139.67,7427.089
5141.3,7435.485
5142.94,7249.667
5144.57,6922.05
5146.2,6868.476
5147.84,7043.62
5149.47,7131.739
5151.1,7050.514
5152.74,6903.226
5154.37,6886.527
5156.01,6730.89
5157.64,6789.225
5159.27,6845.188
5160.91,6604.129
5162.54,6492.137
5164.18,6985.907
5165.81,6925.208
5167.44,6940.388
5169.08,6824.444
5170.71,6785.522
5172.35,6978.727
5173.98,7034.981
5175.61,6973.913
5177.25,7017.2
5178.88,6830.693
5180.51,6622.26
5182.15,6770.798
5183.78,6487.922
5185.42,6581.699
5187.05,6562.221
5188.68,6703.406
5190.32,6809.725
5191.95,6789.356
5193.59,6777.057
5195.22,6590.213
5196.85,6883.387
5198.49,7065.933
5200.12,6785.652
5201.75,7032.914
5203.39,6946.73
5205.02,6581.683
5206.66,6507.304
5208.29,6608.078
5209.92,6632.379
5211.56,6650.607
5213.19,6965.501
5214.82,6559.129
5216.46,6877.933
5218.09,7015.216
5219.73,6803.169
5221.36,6985.605
5222.99,6945.35
5224.63,6613.662
5226.26,6757.232
5227.9,6884.283
5229.53,7106.203
5231.16,6774.814
5232.8,6842.521
5234.43,6982.327
5236.06,6664.802
5237.7,6672.615
5239.33,6894.433
5240.97,7131.055
5242.6,7128.789
5244.23,6894.168
5245.87,6767.734
5247.5,6785.826
5249.14,6514.054
5250.77,6553.907
5252.4,6438.667
5254.04,6589.543
5255.67,6421.521
5257.31,6396.921
5258.94,6678.002
5260.57,6660.299
5262.21,6543.759
5263.84,6520.628
5265.48,6510.661
5267.11,6558.729
5268.74,6325.699
5270.38,6718.322
5272.01,7114.55
5273.64,7322.354
5275.28,6999.878
5276.91,6934.983
5278.55,6955.061
5280.18,7297.929
5281.81,7408.853
5283.45,7326.156
5285.08,6992.062
5286.71,6773.827
5288.35,7129.536
5289.98,7127.827
5291.62,6841.952
5293.25,6997.053
5294.88,7144.901
5296.52,7252.264
5298.15,7284.999
5299.78,7160.426
5301.42,7274.322
5303.05,7150.98
5304.69,7094.659
5306.32,6844.121
5307.95,6824.849
5309.59,6887.345
5311.22,6896.701
5312.86,6967.791
5314.49,6992.407
5316.12,7045.695
5317.76,7185.108
5319.39,7178.172
5321.02,7268.768
5322.66,7260.894
5324.29,7187.672
5325.93,7177.959
5327.56,7036.149
5329.19,7381.811
5330.83,7289.405
5332.46,6908.706
5334.1,7212.55
5335.73,7263.5
5337.36,7231.378
5339,7030.879
5340.63,7019.865
5342.27,7313.047
5343.9,7517.516
5345.53,7021.953
5347.17,6883.836
5348.8,6519.646
5350.44,6685.811
5352.07,6815.006
5353.7,7075.051
5355.34,7130.333
5356.97,6981.233
5358.6,7173.421
5360.24,7289.631
5361.87,7419.756
5363.51,7377.79
5365.14,7258.19
5366.77,7230.472
5368.41,7297.287
5370.04,7499.865
5371.68,7771.012
5373.31,7652.954
5374.94,7334.325
5376.58,7486.451
5378.21,7372.161
5379.84,7351.089
5381.48,7593.292
5383.11,7583.642
5384.75,7358.148
5386.38,7479.866
5388.01,7559.266
5389.65,7616.636
5391.28,7674.521
5392.91,7535.622
5394.55,7646.508
5396.18,7849.319
5397.82,7575.261
5399.45,7269.955
5401.08,7507.376
5402.72,7625.914
5404.35,7647.487
5405.98,7521.005
5407.62,7628.924
5409.25,7422.795
5410.89,7322.675
5412.52,6990.749
5414.15,7038.764
5415.79,7175.44
5417.42,7003.308
5419.06,7380.373
5420.69,7543.106
5422.32,7086.712
5423.96,7282.307
5425.59,7365.305
5427.23,7387.358
5428.86,7350.707
5430.49,7447.953
5432.13,7347.556
5433.76,7736.661
5435.4,7749.614
5437.03,7577.066
5438.66,7522.164
5440.3,7613.964
5441.93,7728.406
5443.56,7645.204
5445.2,7931.321
5446.83,7775.06
5448.47,7687.498
5450.1,7399.112
5451.73,7298.939
5453.37,7422.749
5455,7091.78
5456.64,7075.769
5458.27,7366.026
5459.9,7203.352
5461.54,7452.656
5463.17,7515.384
5464.8,7380.738
5466.44,7446.063
5468.07,7494.434
5469.71,7264.663
5471.34,7337.75
5472.97,7375.687
5474.61,7196.195
5476.24,7401.091
5477.88,7196.133
5479.51,7080.804
5481.14,6977.292
5482.78,7170.614
5484.41,7060.853
5486.04,7105.578
5487.68,7236.417
5489.31,7131.825
5490.95,7206.993
5492.58,6991.345
5494.21,6886.322
5495.85,7093.794
5497.48,7290.931
5499.11,7294.292
5500.75,7360.037
5502.38,7389.826
5504.02,7442.183
5505.65,7613.675
5507.28,7393.745
5508.92,7170.146
5510.55,7546.91
5512.19,7294.042
5513.82,7585.457
5515.45,7612.441
5517.09,7242.558
5518.72,7124.373
5520.35,7503.413
5521.99,7241.615
5523.62,7372.771
5525.26,7517.847
5526.89,7547.417
5528.52,7407.951
5530.16,7472.708
5531.79,7452.49
5533.43,7457.011
5535.06,7433.013
5536.69,7074.903
5538.33,7161.995
5539.96,7223.284
5541.6,7078.696
5543.23,7275.256
5544.86,7167.48
5546.5,7138.587
5548.13,7171.095
5549.76,7167.266
5551.4,7406.676
5553.03,7434.39
5554.67,7320.605
5556.3,7150.64
5557.93,7102.72
5559.57,7061.754
5561.2,7301.823
5562.84,7257.271
5564.47,7032.215
5566.1,7181.162
5567.74,7184.186
5569.37,7139.648
5571,7144.907
5572.64,7474.326
5574.27,7602.339
5575.91,7644.197
5577.54,7672.431
5579.17,7143.13
5580.81,7091.169
5582.44,6958.471
5584.07,6632.261
5585.71,6941.05
5587.34,7242.647
5588.98,7299.051
5590.61,7266.453
5592.24,7235.368
5593.88,7130.879
5595.51,7101.72
5597.15,7442.169
5598.78,7386.524
5600.41,7393.412
5602.05,7422.852
5603.68,7559.473
5605.31,7433.417
5606.95,7413.873
5608.58,7427.322
5610.22,7456.098
5611.85,7495.196
5613.48,7416.011
5615.12,7248.241
5616.75,7166.704
5618.39,7210.674
5620.02,7217.105
5621.65,7183.946
5623.29,7144.495
5624.92,7227.697
5626.56,7265.71
5628.19,7260.593
5629.82,7198.419
5631.46,7303.551
5633.09,7389.822
5634.73,7453.569
5636.36,7613.122
5637.99,7537.438
5639.63,7460.946
5641.26,7468.733
5642.89,7326.68
5644.53,7315.112
5646.16,7340.359
5647.8,7456.086
5649.43,7404.385
5651.06,7417.367
5652.7,7460.271
5654.33,7645.223
5655.96,7553.487
5657.6,7437.252
5659.23,7308.656
5660.87,7231.208
5662.5,7317.032
5664.13,7423.842
5665.77,7519.812
5667.4,7408.218
5669.03,7334.368
5670.67,7237.839
5672.3,7102.114
5673.94,6974.64
5675.57,7173.995
5677.2,7208.607
5678.84,7058.82
5680.47,6957.45
5682.11,7060.454
5683.74,7230.999
5685.37,7543.417
5687.01,7473.575
5688.64,7445.206
5690.27,7385.077
5691.91,7267.776
5693.54,7239.18
5695.18,7309.389
5696.81,7324.379
5698.44,7134.873
5700.08,7092.601
5701.71,7223.005
5703.35,7342.59
5704.98,7287.206
5706.61,7414.55
5708.25,7428.412
5709.88,7401.453
5711.52,7423.986
5713.15,7314.547
5714.78,7293.17
5716.42,7272.215
5718.05,6930.371
5719.69,7221.215
5721.32,7282.32
5722.95,7182.083
5724.59,7026.721
5726.22,7263.141
5727.85,7438.23
5729.49,7567.918
5731.12,7589.657
5732.76,7389.435
5734.39,7259.006
5736.02,7246.294
5737.66,7150.196
5739.29,7145.684
5740.93,7132.332
5742.56,7101.167
5744.19,7136.452
5745.83,7283.782
5747.46,7380.499
5749.09,7342.841
5750.73,6990.137
5752.36,7092.889
5753.99,7258.722
5755.63,7353.255
5757.26,7212.602
5758.9,7335.434
5760.53,7489.378
5762.16,7411.082
5763.8,7356.716
5765.43,7464.514
